ATF	1.0
7	2     
"AcquisitionMode=Gap-Free"
"Comment="
"YTop=500"
"YBottom=-500"
"SweepStartTimesMS=0.000"
"SignalsExported=IN 0"
"Signals="	"IN 0"
"Time (s)"	"Trace #1 (pA)"
0	-10.91
1e-4	-11.4899
2e-4	-12.0392
3e-4	-10.4675
4e-4	-10.6506
5e-4	-10.9253
6e-4	-11.0474
7e-4	-11.2152
8e-4	-11.5967
9e-4	-10.7269
1e-3	-12.2375
0.0011	-10.1166
0.0012	-10.7727
0.0013	-11.1542
0.0014	-11.0016
0.0015	-11.8103
0.0016	-9.76562
0.0017	-10.3607
0.0018	-10.2539
0.0019	-10.849
0.002	-11.3068
0.0021	-10.5591
0.0022	-11.3525
0.0023	-11.2915
0.0024	-12.4359
0.0025	-10.5133
0.0026	-11.1694
0.0027	-9.61304
0.0028	-10.6201
0.0029	-11.734
0.003	-9.76562
0.0031	-10.6049
0.0032	-10.7574
0.0033	-8.14819
0.0034	-10.6201
0.0035	-10.6354
0.0036	-10.4828
0.0037	-11.0779
0.0038	-10.6964
0.0039	-12.2528
0.004	-11.8103
0.0041	-9.26208
0.0042	-11.1542
0.0043	-10.1929
0.0044	-10.8795
0.0045	-12.146
0.0046	-10.7574
0.0047	-11.6272
0.0048	-11.1694
0.0049	-11.0321
0.005	-10.1166
0.0051	-11.3525
0.0052	-11.261
0.0053	-11.3373
0.0054	-12.1002
0.0055	-10.91
0.0056	-11.9476
0.0057	-10.8795
0.0058	-10.3302
0.0059	-11.0779
0.006	-11.9171
0.0061	-10.5743
0.0062	-10.9863
0.0063	-10.6964
0.0064	-12.1613
0.0065	-10.5286
0.0066	-11.1237
0.0067	-10.6354
0.0068	-11.9934
0.0069	-10.9711
0.007	-11.3373
0.0071	-10.2692
0.0072	-11.5662
0.0073	-11.9476
0.0074	-10.5133
0.0075	-10.849
0.0076	-11.8408
0.0077	-10.6812
0.0078	-12.6038
0.0079	-11.7798
0.008	-11.5509
0.0081	-11.0474
0.0082	-11.1542
0.0083	-10.0861
0.0084	-11.6577
0.0085	-10.0403
0.0086	-7.62939
0.0087	-8.66699
0.0088	-11.8256
0.0089	-11.2457
0.009	-12.0239
0.0091	-10.6812
0.0092	-11.4136
0.0093	-11.7035
0.0094	-10.9406
0.0095	-11.8256
0.0096	-11.2457
0.0097	-12.1002
0.0098	-11.3983
0.0099	-10.8032
0.01	-11.8408
0.0101	-11.3525
0.0102	-11.5204
0.0103	-11.5814
0.0104	-11.4899
0.0105	-11.0779
0.0106	-11.9019
0.0107	-10.025
0.0108	-11.8713
0.0109	-11.2762
0.011	-10.0708
0.0111	-11.3678
0.0112	-10.7269
0.0113	-12.3444
0.0114	-11.3831
0.0115	-11.4441
0.0116	-12.6648
0.0117	-10.4828
0.0118	-13.2141
0.0119	-11.4593
0.012	-11.1084
0.0121	-10.7117
0.0122	-10.788
0.0123	-11.6119
0.0124	-10.7574
0.0125	-11.7035
0.0126	-11.3831
0.0127	-10.8032
0.0128	-10.6812
0.0129	-10.6354
0.013	-10.2234
0.0131	-10.2539
0.0132	-10.5286
0.0133	-10.3302
0.0134	-10.9863
0.0135	-11.0168
0.0136	-10.5438
0.0137	-11.4746
0.0138	-11.0626
0.0139	-9.67407
0.014	-11.1542
0.0141	-10.1166
0.0142	-11.1847
0.0143	-11.9629
0.0144	-9.70459
0.0145	-12.2986
0.0146	-9.38415
0.0147	-11.2762
0.0148	-11.0626
0.0149	-7.06482
0.015	-6.34766
0.0151	-4.95911
0.0152	-5.90515
0.0153	-5.50842
0.0154	-6.24084
0.0155	-5.50842
0.0156	-4.16565
0.0157	-6.14929
0.0158	-6.22559
0.0159	-5.46265
0.016	-6.14929
0.0161	-5.23376
0.0162	-5.21851
0.0163	-4.95911
0.0164	-5.41687
0.0165	-6.65283
0.0166	-4.82178
0.0167	-4.60815
0.0168	-5.41687
0.0169	-6.17981
0.017	-5.31006
0.0171	-6.27136
0.0172	-4.65393
0.0173	-5.06592
0.0174	-5.96619
0.0175	-4.98962
0.0176	-5.69153
0.0177	-5.23376
0.0178	-4.2572
0.0179	-5.78308
0.018	-5.41687
0.0181	-6.34766
0.0182	-12.4359
0.0183	-9.8114
0.0184	-11.795
0.0185	-11.5509
0.0186	-11.3068
0.0187	-11.1542
0.0188	-10.7727
0.0189	-11.1084
0.019	-11.322
0.0191	-11.6119
0.0192	-10.91
0.0193	-10.5133
0.0194	-10.4218
0.0195	-9.91821
0.0196	-11.3525
0.0197	-10.2081
0.0198	-10.3455
0.0199	-10.0861
0.02	-10.8948
0.0201	-10.8185
0.0202	-11.7645
0.0203	-11.2762
0.0204	-10.437
0.0205	-10.1471
0.0206	-11.9324
0.0207	-11.5356
0.0208	-10.849
0.0209	-11.734
0.021	-11.0474
0.0211	-10.6049
0.0212	-10.2692
0.0213	-10.5286
0.0214	-12.207
0.0215	-11.8561
0.0216	-11.0626
0.0217	-10.6812
0.0218	-10.6812
0.0219	-11.0931
0.022	-11.9019
0.0221	-10.7727
0.0222	-10.8948
0.0223	-12.2528
0.0224	-10.7574
0.0225	-11.3831
0.0226	-11.0321
0.0227	-11.9781
0.0228	-6.24084
0.0229	-4.86755
0.023	-5.23376
0.0231	-9.1095
0.0232	-10.6812
0.0233	-10.788
0.0234	-11.0626
0.0235	-9.0332
0.0236	-10.8032
0.0237	-11.322
0.0238	-10.9253
0.0239	-10.7117
0.024	-11.0168
0.0241	-10.0403
0.0242	-11.8561
0.0243	-9.97925
0.0244	-10.849
0.0245	-11.322
0.0246	-10.849
0.0247	-12.2681
0.0248	-10.4828
0.0249	-7.70569
0.025	-4.95911
0.0251	-6.7749
0.0252	-10.2081
0.0253	-10.5133
0.0254	-11.2762
0.0255	-10.0403
0.0256	-11.3678
0.0257	-11.2915
0.0258	-10.1471
0.0259	-11.4746
0.026	-11.5509
0.0261	-10.1929
0.0262	-10.6201
0.0263	-10.5591
0.0264	-11.3983
0.0265	-10.2997
0.0266	-11.3525
0.0267	-11.8408
0.0268	-12.085
0.0269	-11.4288
0.027	-10.8337
0.0271	-10.3912
0.0272	-12.2528
0.0273	-11.0321
0.0274	-11.0626
0.0275	-10.0708
0.0276	-10.9711
0.0277	-10.5438
0.0278	-9.90295
0.0279	-12.0239
0.028	-12.2986
0.0281	-9.59778
0.0282	-11.0321
0.0283	-11.5051
0.0284	-11.0626
0.0285	-10.5438
0.0286	-11.5356
0.0287	-11.0931
0.0288	-10.1471
0.0289	-12.1002
0.029	-11.9019
0.0291	-9.26208
0.0292	-11.0321
0.0293	-10.8185
0.0294	-10.1318
0.0295	-11.8103
0.0296	-10.2539
0.0297	-11.9019
0.0298	-10.5133
0.0299	-11.6425
0.03	-10.5438
0.0301	-11.795
0.0302	-4.22668
0.0303	-4.73022
0.0304	-5.66101
0.0305	-4.94385
0.0306	-4.40979
0.0307	-4.80652
0.0308	-5.35583
0.0309	-5.24902
0.031	-4.776
0.0311	-5.44739
0.0312	-5.12695
0.0313	-3.66211
0.0314	-5.95093
0.0315	-4.73022
0.0316	-5.20325
0.0317	-4.88281
0.0318	-4.62341
0.0319	-5.20325
0.032	-5.43213
0.0321	-5.02014
0.0322	-5.59998
0.0323	-4.42505
0.0324	-5.17273
0.0325	-4.0741
0.0326	-5.02014
0.0327	-5.08118
0.0328	-5.49316
0.0329	-5.61523
0.033	-4.776
0.0331	-5.63049
0.0332	-4.36401
0.0333	-5.31006
0.0334	-5.70679
0.0335	-4.94385
0.0336	-4.66919
0.0337	-6.36291
0.0338	-4.69971
0.0339	-5.87463
0.034	-4.5166
0.0341	-4.89807
0.0342	-4.76074
0.0343	-5.69153
0.0344	-4.73022
0.0345	-5.44739
0.0346	-5.52368
0.0347	-5.2948
0.0348	-4.16565
0.0349	-5.12695
0.035	-5.06592
0.0351	-5.70679
0.0352	-4.31824
0.0353	-4.08935
0.0354	-4.3335
0.0355	-5.76782
0.0356	-5.15747
0.0357	-5.85937
0.0358	-4.3335
0.0359	-5.21851
0.036	-5.31006
0.0361	-5.14221
0.0362	-5.59998
0.0363	-4.88281
0.0364	-4.74548
0.0365	-5.34058
0.0366	-4.30298
0.0367	-4.60815
0.0368	-6.89697
0.0369	-11.9019
0.037	-11.2457
0.0371	-11.9934
0.0372	-12.2681
0.0373	-11.0168
0.0374	-12.0392
0.0375	-11.3373
0.0376	-9.04846
0.0377	-10.4675
0.0378	-11.2762
0.0379	-11.322
0.038	-11.1694
0.0381	-11.5814
0.0382	-11.5204
0.0383	-11.2305
0.0384	-11.0779
0.0385	-11.8408
0.0386	-10.4218
0.0387	-11.1542
0.0388	-10.2539
0.0389	-11.1237
0.039	-11.2915
0.0391	-11.734
0.0392	-10.7422
0.0393	-11.4441
0.0394	-11.7035
0.0395	-10.1166
0.0396	-10.1776
0.0397	-11.734
0.0398	-10.7269
0.0399	-12.5427
0.04	-11.1847
0.0401	-11.8256
0.0402	-10.3149
0.0403	-11.0931
0.0404	-10.376
0.0405	-11.1084
0.0406	-11.5662
0.0407	-11.3678
0.0408	-10.9558
0.0409	-10.2081
0.041	-11.0626
0.0411	-8.98743
0.0412	-11.0016
0.0413	-10.437
0.0414	-11.9476
0.0415	-10.0861
0.0416	-10.8948
0.0417	-11.1694
0.0418	-11.7035
0.0419	-11.795
0.042	-11.0626
0.0421	-9.97925
0.0422	-10.4523
0.0423	-11.3831
0.0424	-10.7269
0.0425	-11.2152
0.0426	-10.3302
0.0427	-10.9406
0.0428	-9.68933
0.0429	-10.849
0.043	-11.1237
0.0431	-10.2844
0.0432	-10.9863
0.0433	-11.2915
0.0434	-9.99451
0.0435	-11.9476
0.0436	-9.61304
0.0437	-10.5743
0.0438	-10.4218
0.0439	-10.8032
0.044	-11.5967
0.0441	-12.146
0.0442	-10.9863
0.0443	-10.5591
0.0444	-10.3149
0.0445	-11.3525
0.0446	-10.4675
0.0447	-11.2
0.0448	-12.0239
0.0449	-11.1694
0.045	-11.0626
0.0451	-11.9476
0.0452	-10.91
0.0453	-11.2457
0.0454	-11.0779
0.0455	-10.7574
0.0456	-11.2152
0.0457	-11.9324
0.0458	-11.2
0.0459	-10.5133
0.046	-11.1694
0.0461	-11.9019
0.0462	-10.5743
0.0463	-10.2386
0.0464	-11.4441
0.0465	-9.46045
0.0466	-10.3607
0.0467	-11.6882
0.0468	-10.8795
0.0469	-10.7574
0.047	-12.5122
0.0471	-11.1237
0.0472	-13.2904
0.0473	-9.68933
0.0474	-12.5885
0.0475	-9.97925
0.0476	-10.4065
0.0477	-10.9406
0.0478	-10.6964
0.0479	-11.9781
0.048	-10.5896
0.0481	-11.6425
0.0482	-11.8256
0.0483	-10.8185
0.0484	-10.6659
0.0485	-11.6577
0.0486	-11.7187
0.0487	-12.2986
0.0488	-11.795
0.0489	-10.376
0.049	-11.1694
0.0491	-11.7645
0.0492	-10.8643
0.0493	-12.9395
0.0494	-10.4828
0.0495	-11.795
0.0496	-11.3068
0.0497	-11.8866
0.0498	-7.58362
0.0499	-11.4441
0.05	-11.8103
0.0501	-11.7798
0.0502	-10.6049
0.0503	-11.4288
0.0504	-10.8185
0.0505	-10.2539
0.0506	-10.5438
0.0507	-11.0321
0.0508	-10.91
0.0509	-11.8103
0.051	-11.2305
0.0511	-10.0555
0.0512	-10.5438
0.0513	-10.0098
0.0514	-11.1389
0.0515	-9.90295
0.0516	-10.8948
0.0517	-6.86645
0.0518	-6.01196
0.0519	-4.36401
0.052	-4.69971
0.0521	-6.80542
0.0522	-10.2081
0.0523	-11.7035
0.0524	-11.1389
0.0525	-11.795
0.0526	-11.0626
0.0527	-11.1237
0.0528	-11.9629
0.0529	-11.3525
0.053	-11.2762
0.0531	-10.1166
0.0532	-11.6882
0.0533	-11.0168
0.0534	-10.4523
0.0535	-11.6119
0.0536	-10.8948
0.0537	-12.6648
0.0538	-11.4899
0.0539	-10.1776
0.054	-11.4899
0.0541	-10.7269
0.0542	-10.8032
0.0543	-10.9863
0.0544	-10.788
0.0545	-11.0474
0.0546	-10.0861
0.0547	-10.8643
0.0548	-11.4899
0.0549	-10.9253
0.055	-5.31006
0.0551	-10.5286
0.0552	-10.3455
0.0553	-10.5591
0.0554	-11.7187
0.0555	-10.2081
0.0556	-11.5356
0.0557	-11.3831
0.0558	-10.9711
0.0559	-11.1542
0.056	-10.5286
0.0561	-10.5896
0.0562	-11.3831
0.0563	-11.4899
0.0564	-10.6964
0.0565	-11.3831
0.0566	-10.5133
0.0567	-11.8561
0.0568	-11.0016
0.0569	-10.1776
0.057	-11.7493
0.0571	-11.2152
0.0572	-10.6659
0.0573	-10.6354
0.0574	-11.3068
0.0575	-10.9711
0.0576	-11.0321
0.0577	-11.0016
0.0578	-12.4054
0.0579	-9.53674
0.058	-11.8866
0.0581	-11.1389
0.0582	-11.795
0.0583	-12.5122
0.0584	-10.5438
0.0585	-10.8948
0.0586	-12.1307
0.0587	-10.2386
0.0588	-11.4746
0.0589	-11.9019
0.059	-11.3068
0.0591	-10.4065
0.0592	-10.7574
0.0593	-11.0321
0.0594	-11.4288
0.0595	-11.7035
0.0596	-11.0321
0.0597	-10.7422
0.0598	-11.2305
0.0599	-11.1542
0.06	-10.5286
0.0601	-11.2305
0.0602	-11.673
0.0603	-10.6049
0.0604	-11.7035
0.0605	-11.1389
0.0606	-11.3068
0.0607	-11.1084
0.0608	-12.5122
0.0609	-9.46045
0.061	-11.0931
0.0611	-12.5275
0.0612	-10.9558
0.0613	-11.3068
0.0614	-11.8256
0.0615	-11.1389
0.0616	-10.0098
0.0617	-11.0474
0.0618	-10.2081
0.0619	-11.9019
0.062	-10.6659
0.0621	-10.849
0.0622	-11.3678
0.0623	-9.68933
0.0624	-10.9253
0.0625	-5.2948
0.0626	-9.94873
0.0627	-10.8032
0.0628	-11.4288
0.0629	-11.9019
0.063	-10.1166
0.0631	-11.2152
0.0632	-10.8795
0.0633	-11.4288
0.0634	-10.4218
0.0635	-11.7798
0.0636	-10.8795
0.0637	-10.0403
0.0638	-11.6425
0.0639	-11.0321
0.064	-10.5286
0.0641	-11.9171
0.0642	-11.8103
0.0643	-10.7117
0.0644	-11.2
0.0645	-5.58472
0.0646	-5.40161
0.0647	-4.34875
0.0648	-6.073
0.0649	-5.69153
0.065	-4.50134
0.0651	-5.78308
0.0652	-5.59998
0.0653	-5.75256
0.0654	-4.80652
0.0655	-5.66101
0.0656	-4.24194
0.0657	-5.50842
0.0658	-5.93567
0.0659	-3.9978
0.066	-5.20325
0.0661	-6.17981
0.0662	-4.21143
0.0663	-6.13403
0.0664	-5.4779
0.0665	-5.21851
0.0666	-4.71497
0.0667	-5.41687
0.0668	-5.12695
0.0669	-5.92041
0.067	-6.89697
0.0671	-5.87463
0.0672	-5.66101
0.0673	-5.12695
0.0674	-6.11877
0.0675	-5.64575
0.0676	-6.11877
0.0677	-5.23376
0.0678	-5.44739
0.0679	-5.84412
0.068	-6.19507
0.0681	-5.70679
0.0682	-6.37817
0.0683	-6.39343
0.0684	-6.66809
0.0685	-5.56946
0.0686	-6.57654
0.0687	-5.2948
0.0688	-5.76782
0.0689	-4.47082
0.069	-5.9967
0.0691	-5.67627
0.0692	-5.20325
0.0693	-5.5542
0.0694	-6.53076
0.0695	-5.23376
0.0696	-4.94385
0.0697	-6.01196
0.0698	-5.15747
0.0699	-5.92041
0.07	-4.97436
0.0701	-5.72205
0.0702	-5.35583
0.0703	-6.02722
0.0704	-4.74548
0.0705	-8.31604
0.0706	-12.3138
0.0707	-9.42993
0.0708	-6.27136
0.0709	-10.8185
0.071	-10.8948
0.0711	-9.79614
0.0712	-10.4675
0.0713	-10.8795
0.0714	-10.4065
0.0715	-10.9558
0.0716	-9.33838
0.0717	-11.0321
0.0718	-11.9476
0.0719	-10.0098
0.072	-9.50622
0.0721	-11.0626
0.0722	-5.8136
0.0723	-7.15637
0.0724	-10.2234
0.0725	-9.79614
0.0726	-11.2457
0.0727	-10.3302
0.0728	-11.1847
0.0729	-10.8643
0.073	-10.4523
0.0731	-10.3149
0.0732	-12.0544
0.0733	-11.0168
0.0734	-10.9863
0.0735	-10.7269
0.0736	-10.498
0.0737	-10.0708
0.0738	-11.4288
0.0739	-10.6964
0.074	-11.0931
0.0741	-11.9934
0.0742	-11.9019
0.0743	-11.6272
0.0744	-10.1776
0.0745	-11.2915
0.0746	-10.6812
0.0747	-12.8937
0.0748	-12.3291
0.0749	-10.5743
0.075	-11.6272
0.0751	-10.437
0.0752	-11.322
0.0753	-10.9253
0.0754	-11.673
0.0755	-10.3149
0.0756	-11.2152
0.0757	-10.8643
0.0758	-11.9476
0.0759	-5.93567
0.076	-12.1613
0.0761	-11.1389
0.0762	-10.498
0.0763	-11.0931
0.0764	-11.9324
0.0765	-11.0321
0.0766	-9.32312
0.0767	-10.376
0.0768	-12.1307
0.0769	-11.3525
0.077	-11.4288
0.0771	-10.7727
0.0772	-9.32312
0.0773	-8.65173
0.0774	-11.0626
0.0775	-11.5967
0.0776	-11.795
0.0777	-12.2986
0.0778	-11.3373
0.0779	-10.2234
0.078	-11.1542
0.0781	-11.261
0.0782	-10.5133
0.0783	-11.673
0.0784	-11.4136
0.0785	-11.3068
0.0786	-10.4523
0.0787	-11.2
0.0788	-10.849
0.0789	-11.3831
0.079	-11.6577
0.0791	-10.1013
0.0792	-11.795
0.0793	-10.7422
0.0794	-12.0392
0.0795	-11.5356
0.0796	-11.4899
0.0797	-10.1624
0.0798	-10.5896
0.0799	-10.025
0.08	-10.9711
0.0801	-10.6201
0.0802	-11.0779
0.0803	-11.8713
0.0804	-11.0016
0.0805	-12.97
0.0806	-11.4899
0.0807	-10.8795
0.0808	-11.5814
0.0809	-9.17053
0.081	-9.3689
0.0811	-12.7258
0.0812	-11.4288
0.0813	-10.6964
0.0814	-11.5356
0.0815	-9.20105
0.0816	-4.39453
0.0817	-5.20325
0.0818	-4.57764
0.0819	-5.59998
0.082	-4.94385
0.0821	-4.2572
0.0822	-4.88281
0.0823	-5.00488
0.0824	-3.72314
0.0825	-6.57654
0.0826	-4.36401
0.0827	-6.10352
0.0828	-5.90515
0.0829	-5.50842
0.083	-5.38635
0.0831	-4.86755
0.0832	-5.63049
0.0833	-4.98962
0.0834	-5.35583
0.0835	-5.21851
0.0836	-5.41687
0.0837	-5.9967
0.0838	-4.10461
0.0839	-5.78308
0.084	-4.48608
0.0841	-6.01196
0.0842	-5.09644
0.0843	-6.14929
0.0844	-6.05774
0.0845	-5.12695
0.0846	-11.0321
0.0847	-11.1084
0.0848	-10.3607
0.0849	-11.1542
0.085	-11.795
0.0851	-9.68933
0.0852	-11.9019
0.0853	-11.0168
0.0854	-11.2457
0.0855	-9.38415
0.0856	-10.4065
0.0857	-10.849
0.0858	-11.261
0.0859	-11.4136
0.086	-12.2375
0.0861	-7.30896
0.0862	-11.4899
0.0863	-9.46045
0.0864	-10.3149
0.0865	-10.6354
0.0866	-10.5133
0.0867	-10.6049
0.0868	-10.1013
0.0869	-11.3525
0.087	-10.849
0.0871	-11.2457
0.0872	-11.3068
0.0873	-11.1084
0.0874	-9.96399
0.0875	-10.9406
0.0876	-11.6425
0.0877	-12.2986
0.0878	-10.4675
0.0879	-11.0168
0.088	-11.4899
0.0881	-10.2844
0.0882	-8.34656
0.0883	-9.68933
0.0884	-10.3302
0.0885	-10.8643
0.0886	-11.0168
0.0887	-6.95801
0.0888	-6.2561
0.0889	-8.49914
0.089	-11.3678
0.0891	-10.8948
0.0892	-11.1389
0.0893	-11.4593
0.0894	-10.7422
0.0895	-11.4441
0.0896	-10.7269
0.0897	-11.2305
0.0898	-11.5509
0.0899	-9.91821
0.09	-10.91
0.0901	-10.376
0.0902	-10.8643
0.0903	-10.5286
0.0904	-11.2152
0.0905	-10.5438
0.0906	-11.9019
0.0907	-11.1389
0.0908	-11.6119
0.0909	-11.0474
0.091	-10.1776
0.0911	-10.91
0.0912	-10.7269
0.0913	-13.1378
0.0914	-9.99451
0.0915	-9.79614
0.0916	-11.2762
0.0917	-10.1929
0.0918	-11.5814
0.0919	-11.8561
0.092	-11.2762
0.0921	-10.1166
0.0922	-12.146
0.0923	-11.6272
0.0924	-10.6201
0.0925	-11.2457
0.0926	-11.3678
0.0927	-10.8337
0.0928	-11.5509
0.0929	-11.1847
0.093	-11.1694
0.0931	-11.7493
0.0932	-10.4065
0.0933	-11.6882
0.0934	-10.5286
0.0935	-11.795
0.0936	-9.18579
0.0937	-12.5427
0.0938	-11.1694
0.0939	-10.5133
0.094	-10.6354
0.0941	-10.6812
0.0942	-10.4218
0.0943	-11.7645
0.0944	-11.3831
0.0945	-10.9558
0.0946	-11.322
0.0947	-11.3373
0.0948	-10.7117
0.0949	-9.61304
0.095	-10.4065
0.0951	-10.6354
0.0952	-11.0474
0.0953	-10.1318
0.0954	-11.0626
0.0955	-10.5896
0.0956	-11.9019
0.0957	-10.849
0.0958	-10.4523
0.0959	-10.025
0.096	-8.80432
0.0961	-11.2152
0.0962	-11.3678
0.0963	-10.7727
0.0964	-10.6659
0.0965	-11.1389
0.0966	-10.2386
0.0967	-9.64355
0.0968	-11.6577
0.0969	-11.7798
0.097	-11.7645
0.0971	-10.1929
0.0972	-11.2762
0.0973	-10.3455
0.0974	-11.4593
0.0975	-11.7493
0.0976	-10.4675
0.0977	-10.498
0.0978	-12.0544
0.0979	-10.5743
0.098	-10.5438
0.0981	-11.5814
0.0982	-11.0931
0.0983	-12.0239
0.0984	-11.2762
0.0985	-10.2539
0.0986	-12.5885
0.0987	-11.7187
0.0988	-11.6577
0.0989	-9.26208
0.099	-11.8561
0.0991	-11.3525
0.0992	-10.3607
0.0993	-11.2152
0.0994	-10.376
0.0995	-11.0474
0.0996	-10.8337
0.0997	-10.6812
0.0998	-11.4593
0.0999	-11.3373
0.1	-10.849
0.1001	-11.0016
0.1002	-10.9863
0.1003	-11.8866
0.1004	-11.2305
0.1005	-12.2223
0.1006	-10.4828
0.1007	-11.4441
0.1008	-10.5743
0.1009	-10.4675
0.101	-9.88769
0.1011	-11.5204
0.1012	-10.3149
0.1013	-11.2915
0.1014	-11.1237
0.1015	-11.5509
0.1016	-10.5743
0.1017	-10.6201
0.1018	-11.5814
0.1019	-10.7422
0.102	-10.2844
0.1021	-10.4218
0.1022	-9.97925
0.1023	-11.2
0.1024	-11.9171
0.1025	-11.9324
0.1026	-9.90295
0.1027	-11.1847
0.1028	-11.0474
0.1029	-9.82666
0.103	-11.3373
0.1031	-10.4065
0.1032	-11.3678
0.1033	-11.0016
0.1034	-10.788
0.1035	-10.4675
0.1036	-11.4288
0.1037	-8.30078
0.1038	-11.3373
0.1039	-10.8643
0.104	-9.67407
0.1041	-11.2152
0.1042	-10.849
0.1043	-9.84192
0.1044	-9.70459
0.1045	-5.63049
0.1046	-10.1318
0.1047	-10.6659
0.1048	-10.1624
0.1049	-11.0779
0.105	-10.498
0.1051	-11.5204
0.1052	-11.3068
0.1053	-11.2915
0.1054	-11.0931
0.1055	-11.5662
0.1056	-11.3831
0.1057	-11.0779
0.1058	-11.4899
0.1059	-10.025
0.106	-12.0239
0.1061	-11.4899
0.1062	-11.1542
0.1063	-10.1166
0.1064	-10.9253
0.1065	-11.8713
0.1066	-10.91
0.1067	-11.1389
0.1068	-11.1847
0.1069	-10.849
0.107	-11.4593
0.1071	-11.2915
0.1072	-10.2081
0.1073	-10.9558
0.1074	-9.94873
0.1075	-11.5814
0.1076	-10.4065
0.1077	-11.1542
0.1078	-10.7117
0.1079	-10.2386
0.108	-6.72913
0.1081	-5.63049
0.1082	-5.26428
0.1083	-11.6119
0.1084	-10.4523
0.1085	-11.5356
0.1086	-11.4746
0.1087	-10.6049
0.1088	-10.2844
0.1089	-11.6119
0.109	-10.7422
0.1091	-11.0321
0.1092	-10.1624
0.1093	-11.0168
0.1094	-10.6659
0.1095	-7.88879
0.1096	-10.437
0.1097	-11.5051
0.1098	-10.5896
0.1099	-10.2539
0.11	-11.3373
0.1101	-11.3678
0.1102	-10.9863
0.1103	-11.3678
0.1104	-11.3068
0.1105	-11.0474
0.1106	-11.261
0.1107	-12.6038
0.1108	-8.66699
0.1109	-9.84192
0.111	-7.87353
0.1111	-10.3149
0.1112	-9.47571
0.1113	-9.62829
0.1114	-6.16455
0.1115	-5.90515
0.1116	-10.8337
0.1117	-10.6964
0.1118	-9.88769
0.1119	-10.4218
0.112	-10.1929
0.1121	-11.795
0.1122	-11.3831
0.1123	-10.5743
0.1124	-10.025
0.1125	-11.4288
0.1126	-11.673
0.1127	-10.2997
0.1128	-11.7035
0.1129	-11.6425
0.113	-10.5133
0.1131	-10.2997
0.1132	-11.3068
0.1133	-12.8174
0.1134	-9.46045
0.1135	-10.0555
0.1136	-9.88769
0.1137	-11.6272
0.1138	-11.4593
0.1139	-10.2997
0.114	-10.9711
0.1141	-11.5509
0.1142	-10.6659
0.1143	-11.4288
0.1144	-10.2539
0.1145	-11.2
0.1146	-10.4523
0.1147	-11.6882
0.1148	-11.3678
0.1149	-10.7422
0.115	-10.6049
0.1151	-10.5133
0.1152	-11.673
0.1153	-11.8256
0.1154	-10.4828
0.1155	-10.0861
0.1156	-12.3138
0.1157	-11.2915
0.1158	-11.1847
0.1159	-11.0779
0.116	-10.7269
0.1161	-11.1084
0.1162	-9.65881
0.1163	-12.2681
0.1164	-7.87353
0.1165	-8.80432
0.1166	-5.88989
0.1167	-11.0931
0.1168	-10.5438
0.1169	-10.91
0.117	-11.3373
0.1171	-10.7117
0.1172	-11.9324
0.1173	-11.8103
0.1174	-12.0087
0.1175	-11.0474
0.1176	-11.6882
0.1177	-10.5591
0.1178	-11.0168
0.1179	-11.4899
0.118	-10.1471
0.1181	-11.4746
